Frequency (Hz)	800
0.00000e+00	 82658
1.22070e+01	 83408.6
2.44141e+01	 83087.5
3.66211e+01	 83085.5
4.88281e+01	 83798.9
6.10352e+01	 83301.7
7.32422e+01	 84132.3
8.54492e+01	 84219.4
9.76562e+01	 84366.3
1.09863e+02	 85321.4
1.22070e+02	 85161.3
1.34277e+02	 86153.2
1.46484e+02	 86519.2
1.58691e+02	 87030.5
1.70898e+02	 88181.4
1.83105e+02	 88266.3
1.95312e+02	 89771.4
2.07520e+02	 90185.8
2.19727e+02	 91116.5
2.31934e+02	 92915.1
2.44141e+02	 92778.9
2.56348e+02	 95181.7
2.68555e+02	 95876
2.80762e+02	 96853.5
2.92969e+02	 100052
3.05176e+02	 99322.3
3.17383e+02	 102627
3.29590e+02	 104783
3.41797e+02	 104555
3.54004e+02	 110384
3.66211e+02	 109334
3.78418e+02	 112324
3.90625e+02	 118212
4.02832e+02	 116375
4.15039e+02	 123500
4.27246e+02	 126121
4.39453e+02	 125396
4.51660e+02	 138432
4.63867e+02	 135457
4.76074e+02	 143219
4.88281e+02	 150319
5.00488e+02	 147477
5.12695e+02	 169305
5.24902e+02	 172866
5.37109e+02	 158662
5.49316e+02	 207298
5.61523e+02	 194505
5.73730e+02	 181594
5.85937e+02	 296264
5.98145e+02	 263801
6.10352e+02	 103091
6.22559e+02	 495709
6.34766e+02	 778276
6.46973e+02	 490902
6.59180e+02	 532850
6.71387e+02	 1.21342e+06
6.83594e+02	 1.3407e+06
6.95801e+02	 1.27977e+06
7.08008e+02	 3.59333e+06
7.20215e+02	 5.58015e+06
7.32422e+02	 4.94359e+06
7.44629e+02	 2.34993e+06
7.56836e+02	 1.35592e+06
7.69043e+02	 1.60392e+06
7.81250e+02	 1.55481e+06
7.93457e+02	 1.2484e+06
8.05664e+02	 2.15434e+06
8.17871e+02	 2.50283e+06
8.30078e+02	 964311
8.42285e+02	 883291
8.54492e+02	 1.17488e+06
8.66699e+02	 318841
8.78906e+02	 680731
8.91113e+02	 342204
9.03320e+02	 243709
9.15527e+02	 264123
9.27734e+02	 132064
9.39941e+02	 207418
9.52148e+02	 114177
9.64355e+02	 180079
9.76562e+02	 102222
9.88770e+02	 140503
1.00098e+03	 114919
1.01318e+03	 109970
1.02539e+03	 105450
1.03760e+03	 103686
1.04980e+03	 89876.8
1.06201e+03	 96230.1
1.07422e+03	 85328.3
1.08643e+03	 82951.8
1.09863e+03	 82500.8
1.11084e+03	 74930.3
1.12305e+03	 75237.5
1.13525e+03	 71487.2
1.14746e+03	 68201.7
1.15967e+03	 67110.5
1.17187e+03	 64066.7
1.18408e+03	 61857.9
1.19629e+03	 60684.8
1.20850e+03	 57754.5
1.22070e+03	 56837.7
1.23291e+03	 54716.9
1.24512e+03	 53200.7
1.25732e+03	 51822.1
1.26953e+03	 50237.5
1.28174e+03	 48942.8
1.29395e+03	 47690.9
1.30615e+03	 46325.9
1.31836e+03	 45306.9
1.33057e+03	 44029.9
1.34277e+03	 43064.5
1.35498e+03	 41968.7
1.36719e+03	 41001.3
1.37939e+03	 40066
1.39160e+03	 39134.5
1.40381e+03	 38278
1.41602e+03	 37448.8
1.42822e+03	 36608
1.44043e+03	 35888.8
1.45264e+03	 35084.9
1.46484e+03	 34411.8
1.47705e+03	 33697.7
1.48926e+03	 33030.1
1.50146e+03	 32398.9
1.51367e+03	 31764.8
1.52588e+03	 31166
1.53809e+03	 30597.8
1.55029e+03	 30014.4
1.56250e+03	 29495.7
1.57471e+03	 28951.7
1.58691e+03	 28451.8
1.59912e+03	 27959.2
1.61133e+03	 27476.3
1.62354e+03	 27018.5
1.63574e+03	 26567.8
1.64795e+03	 26128.8
1.66016e+03	 25712.6
1.67236e+03	 25294
1.68457e+03	 24901.5
1.69678e+03	 24510
1.70898e+03	 24134.2
1.72119e+03	 23768.6
1.73340e+03	 23410.7
1.74561e+03	 23064.8
1.75781e+03	 22727.5
1.77002e+03	 22397.3
1.78223e+03	 22079.6
1.79443e+03	 21765.2
1.80664e+03	 21463.5
1.81885e+03	 21166
1.83105e+03	 20877.7
1.84326e+03	 20596.1
1.85547e+03	 20321
1.86768e+03	 20053.2
1.87988e+03	 19791.7
1.89209e+03	 19535.6
1.90430e+03	 19287.1
1.91650e+03	 19042.5
1.92871e+03	 18805.4
1.94092e+03	 18572.3
1.95312e+03	 18345.1
1.96533e+03	 18123
1.97754e+03	 17905.5
1.98975e+03	 17693.2
2.00195e+03	 17485.3
2.01416e+03	 17281.7
2.02637e+03	 17083.1
2.03857e+03	 16887.9
2.05078e+03	 16697.4
2.06299e+03	 16510.9
2.07520e+03	 16327.8
2.08740e+03	 16148.2
2.09961e+03	 15973.5
2.11182e+03	 15802.1
2.12402e+03	 15631.8
2.13623e+03	 15466.8
2.14844e+03	 15307.4
2.16064e+03	 15146.5
2.17285e+03	 14989.3
2.18506e+03	 14839.9
2.19727e+03	 14689.4
2.20947e+03	 14540
2.22168e+03	 14399
2.23389e+03	 14257.1
2.24609e+03	 14114.5
2.25830e+03	 13980.8
2.27051e+03	 13848.3
2.28271e+03	 13713.8
2.29492e+03	 13585.9
2.30713e+03	 13460
2.31934e+03	 13333
2.33154e+03	 13211.7
2.34375e+03	 13092.5
2.35596e+03	 12972.7
2.36816e+03	 12857.1
2.38037e+03	 12743.2
2.39258e+03	 12629.9
2.40479e+03	 12520.1
2.41699e+03	 12411.7
2.42920e+03	 12304.2
2.44141e+03	 12199.6
2.45361e+03	 12096.2
2.46582e+03	 11994.2
2.47803e+03	 11894.5
2.49023e+03	 11795.9
2.50244e+03	 11698.9
2.51465e+03	 11603.7
2.52686e+03	 11509.7
2.53906e+03	 11417.2
2.55127e+03	 11326.3
2.56348e+03	 11236.7
2.57568e+03	 11148.4
2.58789e+03	 11061.6
2.60010e+03	 10975.9
2.61230e+03	 10891.5
2.62451e+03	 10808.6
2.63672e+03	 10726.6
2.64893e+03	 10646
2.66113e+03	 10566.5
2.67334e+03	 10488.1
2.68555e+03	 10411
2.69775e+03	 10334.9
2.70996e+03	 10259.8
2.72217e+03	 10185.9
2.73437e+03	 10112.9
2.74658e+03	 10041.1
2.75879e+03	 9970.18
2.77100e+03	 9900.21
2.78320e+03	 9831.28
2.79541e+03	 9763.22
2.80762e+03	 9696.11
2.81982e+03	 9629.93
2.83203e+03	 9564.57
2.84424e+03	 9500.15
2.85645e+03	 9436.53
2.86865e+03	 9373.77
2.88086e+03	 9311.83
2.89307e+03	 9250.68
2.90527e+03	 9190.34
2.91748e+03	 9130.77
2.92969e+03	 9071.95
2.94189e+03	 9013.9
2.95410e+03	 8956.56
2.96631e+03	 8899.97
2.97852e+03	 8844.05
2.99072e+03	 8788.86
3.00293e+03	 8734.33
3.01514e+03	 8680.48
3.02734e+03	 8627.29
3.03955e+03	 8574.74
3.05176e+03	 8522.84
3.06396e+03	 8471.56
3.07617e+03	 8420.88
3.08838e+03	 8370.83
3.10059e+03	 8321.34
3.11279e+03	 8272.46
3.12500e+03	 8224.14
3.13721e+03	 8176.39
3.14941e+03	 8129.19
3.16162e+03	 8082.54
3.17383e+03	 8036.42
3.18604e+03	 7990.84
3.19824e+03	 7945.75
3.21045e+03	 7901.2
3.22266e+03	 7857.13
3.23486e+03	 7813.57
3.24707e+03	 7770.49
3.25928e+03	 7727.89
3.27148e+03	 7685.75
3.28369e+03	 7644.08
3.29590e+03	 7602.87
3.30811e+03	 7562.1
3.32031e+03	 7521.77
3.33252e+03	 7481.88
3.34473e+03	 7442.42
3.35693e+03	 7403.38
3.36914e+03	 7364.74
3.38135e+03	 7326.52
3.39355e+03	 7288.7
3.40576e+03	 7251.28
3.41797e+03	 7214.25
3.43018e+03	 7177.6
3.44238e+03	 7141.32
3.45459e+03	 7105.43
3.46680e+03	 7069.89
3.47900e+03	 7034.72
3.49121e+03	 6999.9
3.50342e+03	 6965.44
3.51562e+03	 6931.32
3.52783e+03	 6897.54
3.54004e+03	 6864.1
3.55225e+03	 6830.99
3.56445e+03	 6798.2
3.57666e+03	 6765.74
3.58887e+03	 6733.59
3.60107e+03	 6701.76
3.61328e+03	 6670.23
3.62549e+03	 6639.01
3.63770e+03	 6608.09
3.64990e+03	 6577.46
3.66211e+03	 6547.12
3.67432e+03	 6517.07
3.68652e+03	 6487.31
3.69873e+03	 6457.82
3.71094e+03	 6428.61
3.72314e+03	 6399.67
3.73535e+03	 6371
3.74756e+03	 6342.59
3.75977e+03	 6314.45
3.77197e+03	 6286.56
3.78418e+03	 6258.92
3.79639e+03	 6231.54
3.80859e+03	 6204.4
3.82080e+03	 6177.51
3.83301e+03	 6150.86
3.84521e+03	 6124.44
3.85742e+03	 6098.26
3.86963e+03	 6072.32
3.88184e+03	 6046.6
3.89404e+03	 6021.1
3.90625e+03	 5995.83
3.91846e+03	 5970.78
3.93066e+03	 5945.95
3.94287e+03	 5921.33
3.95508e+03	 5896.92
3.96729e+03	 5872.72
3.97949e+03	 5848.73
3.99170e+03	 5824.94
4.00391e+03	 5801.35
4.01611e+03	 5777.96
4.02832e+03	 5754.77
4.04053e+03	 5731.77
4.05273e+03	 5708.96
4.06494e+03	 5686.35
4.07715e+03	 5663.91
4.08936e+03	 5641.67
4.10156e+03	 5619.6
4.11377e+03	 5597.72
4.12598e+03	 5576.01
4.13818e+03	 5554.48
4.15039e+03	 5533.13
4.16260e+03	 5511.94
4.17480e+03	 5490.93
4.18701e+03	 5470.08
4.19922e+03	 5449.4
4.21143e+03	 5428.88
4.22363e+03	 5408.53
4.23584e+03	 5388.33
4.24805e+03	 5368.29
4.26025e+03	 5348.41
4.27246e+03	 5328.69
4.28467e+03	 5309.11
4.29687e+03	 5289.69
4.30908e+03	 5270.42
4.32129e+03	 5251.29
4.33350e+03	 5232.31
4.34570e+03	 5213.48
4.35791e+03	 5194.79
4.37012e+03	 5176.24
4.38232e+03	 5157.83
4.39453e+03	 5139.55
4.40674e+03	 5121.42
4.41895e+03	 5103.41
4.43115e+03	 5085.55
4.44336e+03	 5067.81
4.45557e+03	 5050.2
4.46777e+03	 5032.73
4.47998e+03	 5015.38
4.49219e+03	 4998.16
4.50439e+03	 4981.06
4.51660e+03	 4964.09
4.52881e+03	 4947.24
4.54102e+03	 4930.51
4.55322e+03	 4913.9
4.56543e+03	 4897.41
4.57764e+03	 4881.03
4.58984e+03	 4864.78
4.60205e+03	 4848.63
4.61426e+03	 4832.6
4.62646e+03	 4816.69
4.63867e+03	 4800.88
4.65088e+03	 4785.19
4.66309e+03	 4769.6
4.67529e+03	 4754.12
4.68750e+03	 4738.75
4.69971e+03	 4723.48
4.71191e+03	 4708.32
4.72412e+03	 4693.27
4.73633e+03	 4678.31
4.74854e+03	 4663.46
4.76074e+03	 4648.71
4.77295e+03	 4634.05
4.78516e+03	 4619.5
4.79736e+03	 4605.04
4.80957e+03	 4590.68
4.82178e+03	 4576.41
4.83398e+03	 4562.24
4.84619e+03	 4548.17
4.85840e+03	 4534.18
4.87061e+03	 4520.29
4.88281e+03	 4506.49
4.89502e+03	 4492.78
4.90723e+03	 4479.16
4.91943e+03	 4465.62
4.93164e+03	 4452.18
4.94385e+03	 4438.82
4.95605e+03	 4425.55
4.96826e+03	 4412.36
4.98047e+03	 4399.26
4.99268e+03	 4386.24
5.00488e+03	 4373.3
5.01709e+03	 4360.44
5.02930e+03	 4347.67
5.04150e+03	 4334.97
5.05371e+03	 4322.36
5.06592e+03	 4309.82
5.07812e+03	 4297.37
5.09033e+03	 4284.99
5.10254e+03	 4272.68
5.11475e+03	 4260.46
5.12695e+03	 4248.3
5.13916e+03	 4236.23
5.15137e+03	 4224.22
5.16357e+03	 4212.29
5.17578e+03	 4200.44
5.18799e+03	 4188.65
5.20020e+03	 4176.94
5.21240e+03	 4165.29
5.22461e+03	 4153.72
5.23682e+03	 4142.22
5.24902e+03	 4130.78
5.26123e+03	 4119.41
5.27344e+03	 4108.11
5.28564e+03	 4096.88
5.29785e+03	 4085.72
5.31006e+03	 4074.62
5.32227e+03	 4063.58
5.33447e+03	 4052.61
5.34668e+03	 4041.7
5.35889e+03	 4030.86
5.37109e+03	 4020.08
5.38330e+03	 4009.36
5.39551e+03	 3998.71
5.40771e+03	 3988.12
5.41992e+03	 3977.58
5.43213e+03	 3967.11
5.44434e+03	 3956.7
5.45654e+03	 3946.34
5.46875e+03	 3936.05
5.48096e+03	 3925.81
5.49316e+03	 3915.63
5.50537e+03	 3905.51
5.51758e+03	 3895.45
5.52979e+03	 3885.44
5.54199e+03	 3875.49
5.55420e+03	 3865.59
5.56641e+03	 3855.75
5.57861e+03	 3845.96
5.59082e+03	 3836.23
5.60303e+03	 3826.55
5.61523e+03	 3816.93
5.62744e+03	 3807.35
5.63965e+03	 3797.83
5.65186e+03	 3788.36
5.66406e+03	 3778.95
5.67627e+03	 3769.58
5.68848e+03	 3760.27
5.70068e+03	 3751
5.71289e+03	 3741.78
5.72510e+03	 3732.62
5.73730e+03	 3723.5
5.74951e+03	 3714.43
5.76172e+03	 3705.41
5.77393e+03	 3696.44
5.78613e+03	 3687.52
5.79834e+03	 3678.64
5.81055e+03	 3669.81
5.82275e+03	 3661.03
5.83496e+03	 3652.29
5.84717e+03	 3643.6
5.85937e+03	 3634.95
5.87158e+03	 3626.35
5.88379e+03	 3617.79
5.89600e+03	 3609.28
5.90820e+03	 3600.81
5.92041e+03	 3592.39
5.93262e+03	 3584
5.94482e+03	 3575.67
5.95703e+03	 3567.37
5.96924e+03	 3559.12
5.98145e+03	 3550.9
5.99365e+03	 3542.73
6.00586e+03	 3534.61
6.01807e+03	 3526.52
6.03027e+03	 3518.47
6.04248e+03	 3510.46
6.05469e+03	 3502.5
6.06689e+03	 3494.57
6.07910e+03	 3486.69
6.09131e+03	 3478.84
6.10352e+03	 3471.03
6.11572e+03	 3463.26
6.12793e+03	 3455.53
6.14014e+03	 3447.83
6.15234e+03	 3440.18
6.16455e+03	 3432.56
6.17676e+03	 3424.98
6.18896e+03	 3417.44
6.20117e+03	 3409.93
6.21338e+03	 3402.46
6.22559e+03	 3395.03
6.23779e+03	 3387.63
6.25000e+03	 3380.26
6.26221e+03	 3372.94
6.27441e+03	 3365.65
6.28662e+03	 3358.39
6.29883e+03	 3351.17
6.31104e+03	 3343.98
6.32324e+03	 3336.83
6.33545e+03	 3329.71
6.34766e+03	 3322.62
6.35986e+03	 3315.57
6.37207e+03	 3308.55
6.38428e+03	 3301.56
6.39648e+03	 3294.61
6.40869e+03	 3287.69
6.42090e+03	 3280.8
6.43311e+03	 3273.94
6.44531e+03	 3267.12
6.45752e+03	 3260.33
6.46973e+03	 3253.57
6.48193e+03	 3246.84
6.49414e+03	 3240.14
6.50635e+03	 3233.47
6.51855e+03	 3226.83
6.53076e+03	 3220.22
6.54297e+03	 3213.65
6.55518e+03	 3207.1
6.56738e+03	 3200.58
6.57959e+03	 3194.1
6.59180e+03	 3187.64
6.60400e+03	 3181.21
6.61621e+03	 3174.81
6.62842e+03	 3168.44
6.64062e+03	 3162.1
6.65283e+03	 3155.78
6.66504e+03	 3149.5
6.67725e+03	 3143.24
6.68945e+03	 3137.01
6.70166e+03	 3130.81
6.71387e+03	 3124.63
6.72607e+03	 3118.48
6.73828e+03	 3112.36
6.75049e+03	 3106.27
6.76270e+03	 3100.2
6.77490e+03	 3094.16
6.78711e+03	 3088.15
6.79932e+03	 3082.16
6.81152e+03	 3076.2
6.82373e+03	 3070.27
6.83594e+03	 3064.36
6.84814e+03	 3058.47
6.86035e+03	 3052.62
6.87256e+03	 3046.78
6.88477e+03	 3040.97
6.89697e+03	 3035.19
6.90918e+03	 3029.43
6.92139e+03	 3023.7
6.93359e+03	 3017.99
6.94580e+03	 3012.31
6.95801e+03	 3006.65
6.97021e+03	 3001.01
6.98242e+03	 2995.4
6.99463e+03	 2989.81
7.00684e+03	 2984.24
7.01904e+03	 2978.7
7.03125e+03	 2973.18
7.04346e+03	 2967.69
7.05566e+03	 2962.21
7.06787e+03	 2956.76
7.08008e+03	 2951.34
7.09229e+03	 2945.93
7.10449e+03	 2940.55
7.11670e+03	 2935.19
7.12891e+03	 2929.85
7.14111e+03	 2924.54
7.15332e+03	 2919.24
7.16553e+03	 2913.97
7.17773e+03	 2908.72
7.18994e+03	 2903.49
7.20215e+03	 2898.29
7.21436e+03	 2893.1
7.22656e+03	 2887.93
7.23877e+03	 2882.79
7.25098e+03	 2877.67
7.26318e+03	 2872.57
7.27539e+03	 2867.48
7.28760e+03	 2862.42
7.29980e+03	 2857.38
7.31201e+03	 2852.36
7.32422e+03	 2847.36
7.33643e+03	 2842.38
7.34863e+03	 2837.42
7.36084e+03	 2832.48
7.37305e+03	 2827.56
7.38525e+03	 2822.66
7.39746e+03	 2817.77
7.40967e+03	 2812.91
7.42187e+03	 2808.07
7.43408e+03	 2803.24
7.44629e+03	 2798.44
7.45850e+03	 2793.65
7.47070e+03	 2788.88
7.48291e+03	 2784.13
7.49512e+03	 2779.4
7.50732e+03	 2774.69
7.51953e+03	 2770
7.53174e+03	 2765.32
7.54395e+03	 2760.66
7.55615e+03	 2756.02
7.56836e+03	 2751.4
7.58057e+03	 2746.8
7.59277e+03	 2742.21
7.60498e+03	 2737.65
7.61719e+03	 2733.09
7.62939e+03	 2728.56
7.64160e+03	 2724.04
7.65381e+03	 2719.55
7.66602e+03	 2715.06
7.67822e+03	 2710.6
7.69043e+03	 2706.15
7.70264e+03	 2701.72
7.71484e+03	 2697.31
7.72705e+03	 2692.91
7.73926e+03	 2688.53
7.75146e+03	 2684.16
7.76367e+03	 2679.82
7.77588e+03	 2675.49
7.78809e+03	 2671.17
7.80029e+03	 2666.87
7.81250e+03	 2662.59
7.82471e+03	 2658.32
7.83691e+03	 2654.07
7.84912e+03	 2649.83
7.86133e+03	 2645.61
7.87354e+03	 2641.41
7.88574e+03	 2637.22
7.89795e+03	 2633.05
7.91016e+03	 2628.89
7.92236e+03	 2624.75
7.93457e+03	 2620.62
7.94678e+03	 2616.51
7.95898e+03	 2612.41
7.97119e+03	 2608.33
7.98340e+03	 2604.26
7.99561e+03	 2600.21
8.00781e+03	 2596.17
8.02002e+03	 2592.14
8.03223e+03	 2588.14
8.04443e+03	 2584.14
8.05664e+03	 2580.16
8.06885e+03	 2576.2
8.08105e+03	 2572.24
8.09326e+03	 2568.31
8.10547e+03	 2564.38
8.11768e+03	 2560.47
8.12988e+03	 2556.58
8.14209e+03	 2552.7
8.15430e+03	 2548.83
8.16650e+03	 2544.98
8.17871e+03	 2541.14
8.19092e+03	 2537.31
8.20312e+03	 2533.5
8.21533e+03	 2529.7
8.22754e+03	 2525.91
8.23975e+03	 2522.14
8.25195e+03	 2518.38
8.26416e+03	 2514.63
8.27637e+03	 2510.9
8.28857e+03	 2507.18
8.30078e+03	 2503.47
8.31299e+03	 2499.78
8.32520e+03	 2496.1
8.33740e+03	 2492.43
8.34961e+03	 2488.78
8.36182e+03	 2485.13
8.37402e+03	 2481.5
8.38623e+03	 2477.88
8.39844e+03	 2474.28
8.41064e+03	 2470.69
8.42285e+03	 2467.11
8.43506e+03	 2463.54
8.44727e+03	 2459.98
8.45947e+03	 2456.44
8.47168e+03	 2452.91
8.48389e+03	 2449.39
8.49609e+03	 2445.88
8.50830e+03	 2442.38
8.52051e+03	 2438.9
8.53271e+03	 2435.43
8.54492e+03	 2431.97
8.55713e+03	 2428.52
8.56934e+03	 2425.08
8.58154e+03	 2421.66
8.59375e+03	 2418.24
8.60596e+03	 2414.84
8.61816e+03	 2411.45
8.63037e+03	 2408.07
8.64258e+03	 2404.7
8.65479e+03	 2401.34
8.66699e+03	 2398
8.67920e+03	 2394.66
8.69141e+03	 2391.34
8.70361e+03	 2388.03
8.71582e+03	 2384.73
8.72803e+03	 2381.44
8.74023e+03	 2378.16
8.75244e+03	 2374.89
8.76465e+03	 2371.63
8.77686e+03	 2368.38
8.78906e+03	 2365.14
8.80127e+03	 2361.92
8.81348e+03	 2358.7
8.82568e+03	 2355.5
8.83789e+03	 2352.3
8.85010e+03	 2349.12
8.86230e+03	 2345.95
8.87451e+03	 2342.78
8.88672e+03	 2339.63
8.89893e+03	 2336.49
8.91113e+03	 2333.35
8.92334e+03	 2330.23
8.93555e+03	 2327.12
8.94775e+03	 2324.02
8.95996e+03	 2320.93
8.97217e+03	 2317.84
8.98437e+03	 2314.77
8.99658e+03	 2311.71
9.00879e+03	 2308.66
9.02100e+03	 2305.61
9.03320e+03	 2302.58
9.04541e+03	 2299.56
9.05762e+03	 2296.54
9.06982e+03	 2293.54
9.08203e+03	 2290.54
9.09424e+03	 2287.56
9.10645e+03	 2284.58
9.11865e+03	 2281.62
9.13086e+03	 2278.66
9.14307e+03	 2275.71
9.15527e+03	 2272.77
9.16748e+03	 2269.85
9.17969e+03	 2266.93
9.19189e+03	 2264.01
9.20410e+03	 2261.11
9.21631e+03	 2258.22
9.22852e+03	 2255.34
9.24072e+03	 2252.46
9.25293e+03	 2249.6
9.26514e+03	 2246.74
9.27734e+03	 2243.89
9.28955e+03	 2241.06
9.30176e+03	 2238.23
9.31396e+03	 2235.4
9.32617e+03	 2232.59
9.33838e+03	 2229.79
9.35059e+03	 2226.99
9.36279e+03	 2224.21
9.37500e+03	 2221.43
9.38721e+03	 2218.66
9.39941e+03	 2215.9
9.41162e+03	 2213.15
9.42383e+03	 2210.4
9.43604e+03	 2207.67
9.44824e+03	 2204.94
9.46045e+03	 2202.22
9.47266e+03	 2199.51
9.48486e+03	 2196.81
9.49707e+03	 2194.12
9.50928e+03	 2191.43
9.52148e+03	 2188.75
9.53369e+03	 2186.08
9.54590e+03	 2183.42
9.55811e+03	 2180.77
9.57031e+03	 2178.12
9.58252e+03	 2175.49
9.59473e+03	 2172.86
9.60693e+03	 2170.24
9.61914e+03	 2167.62
9.63135e+03	 2165.02
9.64355e+03	 2162.42
9.65576e+03	 2159.83
9.66797e+03	 2157.25
9.68018e+03	 2154.67
9.69238e+03	 2152.11
9.70459e+03	 2149.55
9.71680e+03	 2146.99
9.72900e+03	 2144.45
9.74121e+03	 2141.91
9.75342e+03	 2139.39
9.76562e+03	 2136.86
9.77783e+03	 2134.35
9.79004e+03	 2131.84
9.80225e+03	 2129.34
9.81445e+03	 2126.85
9.82666e+03	 2124.37
9.83887e+03	 2121.89
9.85107e+03	 2119.42
9.86328e+03	 2116.96
9.87549e+03	 2114.5
9.88770e+03	 2112.05
9.89990e+03	 2109.61
9.91211e+03	 2107.18
9.92432e+03	 2104.75
9.93652e+03	 2102.33
9.94873e+03	 2099.92
9.96094e+03	 2097.51
9.97314e+03	 2095.11
9.98535e+03	 2092.72
9.99756e+03	 2090.34
1.00098e+04	 2087.96
1.00220e+04	 2085.59
1.00342e+04	 2083.22
1.00464e+04	 2080.87
1.00586e+04	 2078.52
1.00708e+04	 2076.17
1.00830e+04	 2073.84
1.00952e+04	 2071.5
1.01074e+04	 2069.18
1.01196e+04	 2066.86
1.01318e+04	 2064.55
1.01440e+04	 2062.25
1.01562e+04	 2059.95
1.01685e+04	 2057.66
1.01807e+04	 2055.38
1.01929e+04	 2053.1
1.02051e+04	 2050.83
1.02173e+04	 2048.56
1.02295e+04	 2046.31
1.02417e+04	 2044.05
1.02539e+04	 2041.81
1.02661e+04	 2039.57
1.02783e+04	 2037.34
1.02905e+04	 2035.11
1.03027e+04	 2032.89
1.03149e+04	 2030.67
1.03271e+04	 2028.47
1.03394e+04	 2026.27
1.03516e+04	 2024.07
1.03638e+04	 2021.88
1.03760e+04	 2019.7
1.03882e+04	 2017.52
1.04004e+04	 2015.35
1.04126e+04	 2013.18
1.04248e+04	 2011.03
1.04370e+04	 2008.87
1.04492e+04	 2006.73
1.04614e+04	 2004.58
1.04736e+04	 2002.45
1.04858e+04	 2000.32
1.04980e+04	 1998.2
1.05103e+04	 1996.08
1.05225e+04	 1993.97
1.05347e+04	 1991.86
1.05469e+04	 1989.76
1.05591e+04	 1987.67
1.05713e+04	 1985.58
1.05835e+04	 1983.5
1.05957e+04	 1981.42
1.06079e+04	 1979.35
1.06201e+04	 1977.29
1.06323e+04	 1975.23
1.06445e+04	 1973.17
1.06567e+04	 1971.12
1.06689e+04	 1969.08
1.06812e+04	 1967.04
1.06934e+04	 1965.01
1.07056e+04	 1962.99
1.07178e+04	 1960.96
1.07300e+04	 1958.95
1.07422e+04	 1956.94
1.07544e+04	 1954.94
1.07666e+04	 1952.94
1.07788e+04	 1950.94
1.07910e+04	 1948.96
1.08032e+04	 1946.97
1.08154e+04	 1945
1.08276e+04	 1943.02
1.08398e+04	 1941.06
1.08521e+04	 1939.1
1.08643e+04	 1937.14
1.08765e+04	 1935.19
1.08887e+04	 1933.24
1.09009e+04	 1931.3
1.09131e+04	 1929.37
1.09253e+04	 1927.44
1.09375e+04	 1925.51
1.09497e+04	 1923.59
1.09619e+04	 1921.68
1.09741e+04	 1919.77
1.09863e+04	 1917.87
1.09985e+04	 1915.97
1.10107e+04	 1914.07
1.10229e+04	 1912.18
1.10352e+04	 1910.3
1.10474e+04	 1908.42
1.10596e+04	 1906.55
1.10718e+04	 1904.68
1.10840e+04	 1902.81
1.10962e+04	 1900.95
1.11084e+04	 1899.1
1.11206e+04	 1897.25
1.11328e+04	 1895.4
1.11450e+04	 1893.56
1.11572e+04	 1891.73
1.11694e+04	 1889.9
1.11816e+04	 1888.07
1.11938e+04	 1886.25
1.12061e+04	 1884.44
1.12183e+04	 1882.63
1.12305e+04	 1880.82
1.12427e+04	 1879.02
1.12549e+04	 1877.22
1.12671e+04	 1875.43
1.12793e+04	 1873.64
1.12915e+04	 1871.86
1.13037e+04	 1870.08
1.13159e+04	 1868.31
1.13281e+04	 1866.54
1.13403e+04	 1864.77
1.13525e+04	 1863.01
1.13647e+04	 1861.26
1.13770e+04	 1859.51
1.13892e+04	 1857.76
1.14014e+04	 1856.02
1.14136e+04	 1854.28
1.14258e+04	 1852.55
1.14380e+04	 1850.82
1.14502e+04	 1849.1
1.14624e+04	 1847.38
1.14746e+04	 1845.66
1.14868e+04	 1843.95
1.14990e+04	 1842.25
1.15112e+04	 1840.55
1.15234e+04	 1838.85
1.15356e+04	 1837.16
1.15479e+04	 1835.47
1.15601e+04	 1833.78
1.15723e+04	 1832.1
1.15845e+04	 1830.43
1.15967e+04	 1828.76
1.16089e+04	 1827.09
1.16211e+04	 1825.43
1.16333e+04	 1823.77
1.16455e+04	 1822.11
1.16577e+04	 1820.46
1.16699e+04	 1818.82
1.16821e+04	 1817.17
1.16943e+04	 1815.54
1.17065e+04	 1813.9
1.17187e+04	 1812.27
1.17310e+04	 1810.65
1.17432e+04	 1809.03
1.17554e+04	 1807.41
1.17676e+04	 1805.8
1.17798e+04	 1804.19
1.17920e+04	 1802.58
1.18042e+04	 1800.98
1.18164e+04	 1799.39
1.18286e+04	 1797.79
1.18408e+04	 1796.2
1.18530e+04	 1794.62
1.18652e+04	 1793.04
1.18774e+04	 1791.46
1.18896e+04	 1789.89
1.19019e+04	 1788.32
1.19141e+04	 1786.75
1.19263e+04	 1785.19
1.19385e+04	 1783.64
1.19507e+04	 1782.08
1.19629e+04	 1780.53
1.19751e+04	 1778.99
1.19873e+04	 1777.45
1.19995e+04	 1775.91
1.20117e+04	 1774.37
1.20239e+04	 1772.84
1.20361e+04	 1771.32
1.20483e+04	 1769.79
1.20605e+04	 1768.27
1.20728e+04	 1766.76
1.20850e+04	 1765.25
1.20972e+04	 1763.74
1.21094e+04	 1762.24
1.21216e+04	 1760.74
1.21338e+04	 1759.24
1.21460e+04	 1757.75
1.21582e+04	 1756.26
1.21704e+04	 1754.77
1.21826e+04	 1753.29
1.21948e+04	 1751.81
1.22070e+04	 1750.34
1.22192e+04	 1748.87
1.22314e+04	 1747.4
1.22437e+04	 1745.93
1.22559e+04	 1744.47
1.22681e+04	 1743.02
1.22803e+04	 1741.56
1.22925e+04	 1740.12
1.23047e+04	 1738.67
1.23169e+04	 1737.23
1.23291e+04	 1735.79
1.23413e+04	 1734.35
1.23535e+04	 1732.92
1.23657e+04	 1731.49
1.23779e+04	 1730.07
1.23901e+04	 1728.65
1.24023e+04	 1727.23
1.24146e+04	 1725.81
1.24268e+04	 1724.4
1.24390e+04	 1722.99
1.24512e+04	 1721.59
1.24634e+04	 1720.19
1.24756e+04	 1718.79
1.24878e+04	 1717.4
1.25000e+04	 1716.01
1.25122e+04	 1714.62
1.25244e+04	 1713.24
1.25366e+04	 1711.85
1.25488e+04	 1710.48
1.25610e+04	 1709.1
1.25732e+04	 1707.73
1.25854e+04	 1706.37
1.25977e+04	 1705
1.26099e+04	 1703.64
1.26221e+04	 1702.28
1.26343e+04	 1700.93
1.26465e+04	 1699.58
1.26587e+04	 1698.23
1.26709e+04	 1696.89
1.26831e+04	 1695.54
1.26953e+04	 1694.21
1.27075e+04	 1692.87
1.27197e+04	 1691.54
1.27319e+04	 1690.21
1.27441e+04	 1688.89
1.27563e+04	 1687.56
1.27686e+04	 1686.24
1.27808e+04	 1684.93
1.27930e+04	 1683.62
1.28052e+04	 1682.31
1.28174e+04	 1681
1.28296e+04	 1679.7
1.28418e+04	 1678.4
1.28540e+04	 1677.1
1.28662e+04	 1675.8
1.28784e+04	 1674.51
1.28906e+04	 1673.22
1.29028e+04	 1671.94
1.29150e+04	 1670.66
1.29272e+04	 1669.38
1.29395e+04	 1668.1
1.29517e+04	 1666.83
1.29639e+04	 1665.56
1.29761e+04	 1664.29
1.29883e+04	 1663.03
1.30005e+04	 1661.77
1.30127e+04	 1660.51
1.30249e+04	 1659.26
1.30371e+04	 1658
1.30493e+04	 1656.76
1.30615e+04	 1655.51
1.30737e+04	 1654.27
1.30859e+04	 1653.03
1.30981e+04	 1651.79
1.31104e+04	 1650.56
1.31226e+04	 1649.32
1.31348e+04	 1648.1
1.31470e+04	 1646.87
1.31592e+04	 1645.65
1.31714e+04	 1644.43
1.31836e+04	 1643.21
1.31958e+04	 1642
1.32080e+04	 1640.78
1.32202e+04	 1639.58
1.32324e+04	 1638.37
1.32446e+04	 1637.17
1.32568e+04	 1635.97
1.32690e+04	 1634.77
1.32812e+04	 1633.58
1.32935e+04	 1632.38
1.33057e+04	 1631.2
1.33179e+04	 1630.01
1.33301e+04	 1628.83
1.33423e+04	 1627.64
1.33545e+04	 1626.47
1.33667e+04	 1625.29
1.33789e+04	 1624.12
1.33911e+04	 1622.95
1.34033e+04	 1621.78
1.34155e+04	 1620.62
1.34277e+04	 1619.46
1.34399e+04	 1618.3
1.34521e+04	 1617.14
1.34644e+04	 1615.99
1.34766e+04	 1614.84
1.34888e+04	 1613.69
1.35010e+04	 1612.54
1.35132e+04	 1611.4
1.35254e+04	 1610.26
1.35376e+04	 1609.12
1.35498e+04	 1607.99
1.35620e+04	 1606.86
1.35742e+04	 1605.73
1.35864e+04	 1604.6
1.35986e+04	 1603.48
1.36108e+04	 1602.35
1.36230e+04	 1601.23
1.36353e+04	 1600.12
1.36475e+04	 1599
1.36597e+04	 1597.89
1.36719e+04	 1596.78
1.36841e+04	 1595.68
1.36963e+04	 1594.57
1.37085e+04	 1593.47
1.37207e+04	 1592.37
1.37329e+04	 1591.28
1.37451e+04	 1590.18
1.37573e+04	 1589.09
1.37695e+04	 1588
1.37817e+04	 1586.92
1.37939e+04	 1585.83
1.38062e+04	 1584.75
1.38184e+04	 1583.67
1.38306e+04	 1582.6
1.38428e+04	 1581.52
1.38550e+04	 1580.45
1.38672e+04	 1579.38
1.38794e+04	 1578.32
1.38916e+04	 1577.25
1.39038e+04	 1576.19
1.39160e+04	 1575.13
1.39282e+04	 1574.07
1.39404e+04	 1573.02
1.39526e+04	 1571.97
1.39648e+04	 1570.92
1.39771e+04	 1569.87
1.39893e+04	 1568.83
1.40015e+04	 1567.78
1.40137e+04	 1566.74
1.40259e+04	 1565.71
1.40381e+04	 1564.67
1.40503e+04	 1563.64
1.40625e+04	 1562.61
1.40747e+04	 1561.58
1.40869e+04	 1560.55
1.40991e+04	 1559.53
1.41113e+04	 1558.51
1.41235e+04	 1557.49
1.41357e+04	 1556.47
1.41479e+04	 1555.46
1.41602e+04	 1554.45
1.41724e+04	 1553.44
1.41846e+04	 1552.43
1.41968e+04	 1551.42
1.42090e+04	 1550.42
1.42212e+04	 1549.42
1.42334e+04	 1548.42
1.42456e+04	 1547.43
1.42578e+04	 1546.43
1.42700e+04	 1545.44
1.42822e+04	 1544.45
1.42944e+04	 1543.46
1.43066e+04	 1542.48
1.43188e+04	 1541.5
1.43311e+04	 1540.52
1.43433e+04	 1539.54
1.43555e+04	 1538.56
1.43677e+04	 1537.59
1.43799e+04	 1536.62
1.43921e+04	 1535.65
1.44043e+04	 1534.68
1.44165e+04	 1533.71
1.44287e+04	 1532.75
1.44409e+04	 1531.79
1.44531e+04	 1530.83
1.44653e+04	 1529.88
1.44775e+04	 1528.92
1.44897e+04	 1527.97
1.45020e+04	 1527.02
1.45142e+04	 1526.07
1.45264e+04	 1525.13
1.45386e+04	 1524.18
1.45508e+04	 1523.24
1.45630e+04	 1522.3
1.45752e+04	 1521.36
1.45874e+04	 1520.43
1.45996e+04	 1519.5
1.46118e+04	 1518.57
1.46240e+04	 1517.64
1.46362e+04	 1516.71
1.46484e+04	 1515.79
1.46606e+04	 1514.86
1.46729e+04	 1513.94
1.46851e+04	 1513.02
1.46973e+04	 1512.11
1.47095e+04	 1511.19
1.47217e+04	 1510.28
1.47339e+04	 1509.37
1.47461e+04	 1508.46
1.47583e+04	 1507.56
1.47705e+04	 1506.65
1.47827e+04	 1505.75
1.47949e+04	 1504.85
1.48071e+04	 1503.95
1.48193e+04	 1503.06
1.48315e+04	 1502.16
1.48437e+04	 1501.27
1.48560e+04	 1500.38
1.48682e+04	 1499.49
1.48804e+04	 1498.61
1.48926e+04	 1497.72
1.49048e+04	 1496.84
1.49170e+04	 1495.96
1.49292e+04	 1495.08
1.49414e+04	 1494.21
1.49536e+04	 1493.33
1.49658e+04	 1492.46
1.49780e+04	 1491.59
1.49902e+04	 1490.72
1.50024e+04	 1489.86
1.50146e+04	 1488.99
1.50269e+04	 1488.13
1.50391e+04	 1487.27
1.50513e+04	 1486.41
1.50635e+04	 1485.55
1.50757e+04	 1484.7
1.50879e+04	 1483.85
1.51001e+04	 1483
1.51123e+04	 1482.15
1.51245e+04	 1481.3
1.51367e+04	 1480.45
1.51489e+04	 1479.61
1.51611e+04	 1478.77
1.51733e+04	 1477.93
1.51855e+04	 1477.09
1.51978e+04	 1476.26
1.52100e+04	 1475.42
1.52222e+04	 1474.59
1.52344e+04	 1473.76
1.52466e+04	 1472.93
1.52588e+04	 1472.1
1.52710e+04	 1471.28
1.52832e+04	 1470.46
1.52954e+04	 1469.63
1.53076e+04	 1468.82
1.53198e+04	 1468
1.53320e+04	 1467.18
1.53442e+04	 1466.37
1.53564e+04	 1465.56
1.53687e+04	 1464.75
1.53809e+04	 1463.94
1.53931e+04	 1463.13
1.54053e+04	 1462.33
1.54175e+04	 1461.52
1.54297e+04	 1460.72
1.54419e+04	 1459.92
1.54541e+04	 1459.13
1.54663e+04	 1458.33
1.54785e+04	 1457.54
1.54907e+04	 1456.74
1.55029e+04	 1455.95
1.55151e+04	 1455.16
1.55273e+04	 1454.38
1.55396e+04	 1453.59
1.55518e+04	 1452.81
1.55640e+04	 1452.03
1.55762e+04	 1451.25
1.55884e+04	 1450.47
1.56006e+04	 1449.69
1.56128e+04	 1448.92
1.56250e+04	 1448.14
1.56372e+04	 1447.37
1.56494e+04	 1446.6
1.56616e+04	 1445.84
1.56738e+04	 1445.07
1.56860e+04	 1444.31
1.56982e+04	 1443.54
1.57104e+04	 1442.78
1.57227e+04	 1442.02
1.57349e+04	 1441.26
1.57471e+04	 1440.51
1.57593e+04	 1439.75
1.57715e+04	 1439
1.57837e+04	 1438.25
1.57959e+04	 1437.5
1.58081e+04	 1436.75
1.58203e+04	 1436.01
1.58325e+04	 1435.26
1.58447e+04	 1434.52
1.58569e+04	 1433.78
1.58691e+04	 1433.04
1.58813e+04	 1432.3
1.58936e+04	 1431.57
1.59058e+04	 1430.83
1.59180e+04	 1430.1
1.59302e+04	 1429.37
1.59424e+04	 1428.64
1.59546e+04	 1427.91
1.59668e+04	 1427.19
1.59790e+04	 1426.46
1.59912e+04	 1425.74
1.60034e+04	 1425.02
1.60156e+04	 1424.3
1.60278e+04	 1423.58
1.60400e+04	 1422.86
1.60522e+04	 1422.15
1.60645e+04	 1421.43
1.60767e+04	 1420.72
1.60889e+04	 1420.01
1.61011e+04	 1419.3
1.61133e+04	 1418.6
1.61255e+04	 1417.89
1.61377e+04	 1417.19
1.61499e+04	 1416.49
1.61621e+04	 1415.78
1.61743e+04	 1415.09
1.61865e+04	 1414.39
1.61987e+04	 1413.69
1.62109e+04	 1413
1.62231e+04	 1412.3
1.62354e+04	 1411.61
1.62476e+04	 1410.92
1.62598e+04	 1410.24
1.62720e+04	 1409.55
1.62842e+04	 1408.86
1.62964e+04	 1408.18
1.63086e+04	 1407.5
1.63208e+04	 1406.82
1.63330e+04	 1406.14
1.63452e+04	 1405.46
1.63574e+04	 1404.79
1.63696e+04	 1404.11
1.63818e+04	 1403.44
1.63940e+04	 1402.77
1.64062e+04	 1402.1
1.64185e+04	 1401.43
1.64307e+04	 1400.76
1.64429e+04	 1400.1
1.64551e+04	 1399.43
1.64673e+04	 1398.77
1.64795e+04	 1398.11
1.64917e+04	 1397.45
1.65039e+04	 1396.79
1.65161e+04	 1396.14
1.65283e+04	 1395.48
1.65405e+04	 1394.83
1.65527e+04	 1394.17
1.65649e+04	 1393.52
1.65771e+04	 1392.88
1.65894e+04	 1392.23
1.66016e+04	 1391.58
1.66138e+04	 1390.94
1.66260e+04	 1390.29
1.66382e+04	 1389.65
1.66504e+04	 1389.01
1.66626e+04	 1388.37
1.66748e+04	 1387.74
1.66870e+04	 1387.1
1.66992e+04	 1386.46
1.67114e+04	 1385.83
1.67236e+04	 1385.2
1.67358e+04	 1384.57
1.67480e+04	 1383.94
1.67603e+04	 1383.31
1.67725e+04	 1382.69
1.67847e+04	 1382.06
1.67969e+04	 1381.44
1.68091e+04	 1380.82
1.68213e+04	 1380.2
1.68335e+04	 1379.58
1.68457e+04	 1378.96
1.68579e+04	 1378.34
1.68701e+04	 1377.73
1.68823e+04	 1377.12
1.68945e+04	 1376.5
1.69067e+04	 1375.89
1.69189e+04	 1375.28
1.69312e+04	 1374.68
1.69434e+04	 1374.07
1.69556e+04	 1373.47
1.69678e+04	 1372.86
1.69800e+04	 1372.26
1.69922e+04	 1371.66
1.70044e+04	 1371.06
1.70166e+04	 1370.46
1.70288e+04	 1369.86
1.70410e+04	 1369.27
1.70532e+04	 1368.67
1.70654e+04	 1368.08
1.70776e+04	 1367.49
1.70898e+04	 1366.9
1.71021e+04	 1366.31
1.71143e+04	 1365.72
1.71265e+04	 1365.14
1.71387e+04	 1364.55
1.71509e+04	 1363.97
1.71631e+04	 1363.39
1.71753e+04	 1362.81
1.71875e+04	 1362.23
1.71997e+04	 1361.65
1.72119e+04	 1361.07
1.72241e+04	 1360.5
1.72363e+04	 1359.93
1.72485e+04	 1359.35
1.72607e+04	 1358.78
1.72729e+04	 1358.21
1.72852e+04	 1357.64
1.72974e+04	 1357.07
1.73096e+04	 1356.51
1.73218e+04	 1355.94
1.73340e+04	 1355.38
1.73462e+04	 1354.82
1.73584e+04	 1354.26
1.73706e+04	 1353.7
1.73828e+04	 1353.14
1.73950e+04	 1352.58
1.74072e+04	 1352.03
1.74194e+04	 1351.47
1.74316e+04	 1350.92
1.74438e+04	 1350.37
1.74561e+04	 1349.82
1.74683e+04	 1349.27
1.74805e+04	 1348.72
1.74927e+04	 1348.17
1.75049e+04	 1347.63
1.75171e+04	 1347.08
1.75293e+04	 1346.54
1.75415e+04	 1346
1.75537e+04	 1345.46
1.75659e+04	 1344.92
1.75781e+04	 1344.38
1.75903e+04	 1343.84
1.76025e+04	 1343.31
1.76147e+04	 1342.77
1.76270e+04	 1342.24
1.76392e+04	 1341.71
1.76514e+04	 1341.18
1.76636e+04	 1340.65
1.76758e+04	 1340.12
1.76880e+04	 1339.6
1.77002e+04	 1339.07
1.77124e+04	 1338.55
1.77246e+04	 1338.02
1.77368e+04	 1337.5
1.77490e+04	 1336.98
1.77612e+04	 1336.46
1.77734e+04	 1335.94
1.77856e+04	 1335.43
1.77979e+04	 1334.91
1.78101e+04	 1334.4
1.78223e+04	 1333.88
1.78345e+04	 1333.37
1.78467e+04	 1332.86
1.78589e+04	 1332.35
1.78711e+04	 1331.84
1.78833e+04	 1331.33
1.78955e+04	 1330.83
1.79077e+04	 1330.32
1.79199e+04	 1329.82
1.79321e+04	 1329.32
1.79443e+04	 1328.82
1.79565e+04	 1328.32
1.79687e+04	 1327.82
1.79810e+04	 1327.32
1.79932e+04	 1326.82
1.80054e+04	 1326.33
1.80176e+04	 1325.83
1.80298e+04	 1325.34
1.80420e+04	 1324.85
1.80542e+04	 1324.36
1.80664e+04	 1323.87
1.80786e+04	 1323.38
1.80908e+04	 1322.89
1.81030e+04	 1322.41
1.81152e+04	 1321.92
1.81274e+04	 1321.44
1.81396e+04	 1320.96
1.81519e+04	 1320.48
1.81641e+04	 1320
1.81763e+04	 1319.52
1.81885e+04	 1319.04
1.82007e+04	 1318.56
1.82129e+04	 1318.09
1.82251e+04	 1317.61
1.82373e+04	 1317.14
1.82495e+04	 1316.67
1.82617e+04	 1316.2
1.82739e+04	 1315.73
1.82861e+04	 1315.26
1.82983e+04	 1314.79
1.83105e+04	 1314.33
1.83228e+04	 1313.86
1.83350e+04	 1313.4
1.83472e+04	 1312.93
1.83594e+04	 1312.47
1.83716e+04	 1312.01
1.83838e+04	 1311.55
1.83960e+04	 1311.09
1.84082e+04	 1310.64
1.84204e+04	 1310.18
1.84326e+04	 1309.72
1.84448e+04	 1309.27
1.84570e+04	 1308.82
1.84692e+04	 1308.37
1.84814e+04	 1307.91
1.84937e+04	 1307.47
1.85059e+04	 1307.02
1.85181e+04	 1306.57
1.85303e+04	 1306.12
1.85425e+04	 1305.68
1.85547e+04	 1305.23
1.85669e+04	 1304.79
1.85791e+04	 1304.35
1.85913e+04	 1303.91
1.86035e+04	 1303.47
1.86157e+04	 1303.03
1.86279e+04	 1302.59
1.86401e+04	 1302.16
1.86523e+04	 1301.72
1.86646e+04	 1301.29
1.86768e+04	 1300.85
1.86890e+04	 1300.42
1.87012e+04	 1299.99
1.87134e+04	 1299.56
1.87256e+04	 1299.13
1.87378e+04	 1298.71
1.87500e+04	 1298.28
1.87622e+04	 1297.85
1.87744e+04	 1297.43
1.87866e+04	 1297.01
1.87988e+04	 1296.58
1.88110e+04	 1296.16
1.88232e+04	 1295.74
1.88354e+04	 1295.32
1.88477e+04	 1294.9
1.88599e+04	 1294.49
1.88721e+04	 1294.07
1.88843e+04	 1293.66
1.88965e+04	 1293.24
1.89087e+04	 1292.83
1.89209e+04	 1292.42
1.89331e+04	 1292.01
1.89453e+04	 1291.6
1.89575e+04	 1291.19
1.89697e+04	 1290.78
1.89819e+04	 1290.38
1.89941e+04	 1289.97
1.90063e+04	 1289.57
1.90186e+04	 1289.16
1.90308e+04	 1288.76
1.90430e+04	 1288.36
1.90552e+04	 1287.96
1.90674e+04	 1287.56
1.90796e+04	 1287.16
1.90918e+04	 1286.76
1.91040e+04	 1286.37
1.91162e+04	 1285.97
1.91284e+04	 1285.58
1.91406e+04	 1285.19
1.91528e+04	 1284.79
1.91650e+04	 1284.4
1.91772e+04	 1284.01
1.91895e+04	 1283.62
1.92017e+04	 1283.24
1.92139e+04	 1282.85
1.92261e+04	 1282.46
1.92383e+04	 1282.08
1.92505e+04	 1281.69
1.92627e+04	 1281.31
1.92749e+04	 1280.93
1.92871e+04	 1280.55
1.92993e+04	 1280.17
1.93115e+04	 1279.79
1.93237e+04	 1279.41
1.93359e+04	 1279.04
1.93481e+04	 1278.66
1.93604e+04	 1278.28
1.93726e+04	 1277.91
1.93848e+04	 1277.54
1.93970e+04	 1277.17
1.94092e+04	 1276.8
1.94214e+04	 1276.43
1.94336e+04	 1276.06
1.94458e+04	 1275.69
1.94580e+04	 1275.32
1.94702e+04	 1274.96
1.94824e+04	 1274.59
1.94946e+04	 1274.23
1.95068e+04	 1273.86
1.95190e+04	 1273.5
1.95312e+04	 1273.14
1.95435e+04	 1272.78
1.95557e+04	 1272.42
1.95679e+04	 1272.06
1.95801e+04	 1271.71
1.95923e+04	 1271.35
1.96045e+04	 1271
1.96167e+04	 1270.64
1.96289e+04	 1270.29
1.96411e+04	 1269.94
1.96533e+04	 1269.59
1.96655e+04	 1269.24
1.96777e+04	 1268.89
1.96899e+04	 1268.54
1.97021e+04	 1268.19
1.97144e+04	 1267.84
1.97266e+04	 1267.5
1.97388e+04	 1267.15
1.97510e+04	 1266.81
1.97632e+04	 1266.47
1.97754e+04	 1266.13
1.97876e+04	 1265.79
1.97998e+04	 1265.45
1.98120e+04	 1265.11
1.98242e+04	 1264.77
1.98364e+04	 1264.43
1.98486e+04	 1264.1
1.98608e+04	 1263.76
1.98730e+04	 1263.43
1.98853e+04	 1263.09
1.98975e+04	 1262.76
1.99097e+04	 1262.43
1.99219e+04	 1262.1
1.99341e+04	 1261.77
1.99463e+04	 1261.44
1.99585e+04	 1261.12
1.99707e+04	 1260.79
1.99829e+04	 1260.46
1.99951e+04	 1260.14
2.00073e+04	 1259.81
2.00195e+04	 1259.49
2.00317e+04	 1259.17
2.00439e+04	 1258.85
2.00562e+04	 1258.53
2.00684e+04	 1258.21
2.00806e+04	 1257.89
2.00928e+04	 1257.58
2.01050e+04	 1257.26
2.01172e+04	 1256.94
2.01294e+04	 1256.63
2.01416e+04	 1256.32
2.01538e+04	 1256
2.01660e+04	 1255.69
2.01782e+04	 1255.38
2.01904e+04	 1255.07
2.02026e+04	 1254.76
2.02148e+04	 1254.45
2.02271e+04	 1254.15
2.02393e+04	 1253.84
2.02515e+04	 1253.54
2.02637e+04	 1253.23
2.02759e+04	 1252.93
2.02881e+04	 1252.63
2.03003e+04	 1252.32
2.03125e+04	 1252.02
2.03247e+04	 1251.72
2.03369e+04	 1251.42
2.03491e+04	 1251.13
2.03613e+04	 1250.83
2.03735e+04	 1250.53
2.03857e+04	 1250.24
2.03979e+04	 1249.94
2.04102e+04	 1249.65
2.04224e+04	 1249.36
2.04346e+04	 1249.07
2.04468e+04	 1248.77
2.04590e+04	 1248.48
2.04712e+04	 1248.2
2.04834e+04	 1247.91
2.04956e+04	 1247.62
2.05078e+04	 1247.33
2.05200e+04	 1247.05
2.05322e+04	 1246.76
2.05444e+04	 1246.48
2.05566e+04	 1246.2
2.05688e+04	 1245.92
2.05811e+04	 1245.63
2.05933e+04	 1245.35
2.06055e+04	 1245.07
2.06177e+04	 1244.8
2.06299e+04	 1244.52
2.06421e+04	 1244.24
2.06543e+04	 1243.97
2.06665e+04	 1243.69
2.06787e+04	 1243.42
2.06909e+04	 1243.14
2.07031e+04	 1242.87
2.07153e+04	 1242.6
2.07275e+04	 1242.33
2.07397e+04	 1242.06
2.07520e+04	 1241.79
2.07642e+04	 1241.52
2.07764e+04	 1241.26
2.07886e+04	 1240.99
2.08008e+04	 1240.73
2.08130e+04	 1240.46
2.08252e+04	 1240.2
2.08374e+04	 1239.93
2.08496e+04	 1239.67
2.08618e+04	 1239.41
2.08740e+04	 1239.15
2.08862e+04	 1238.89
2.08984e+04	 1238.63
2.09106e+04	 1238.38
2.09229e+04	 1238.12
2.09351e+04	 1237.86
2.09473e+04	 1237.61
2.09595e+04	 1237.36
2.09717e+04	 1237.1
2.09839e+04	 1236.85
2.09961e+04	 1236.6
2.10083e+04	 1236.35
2.10205e+04	 1236.1
2.10327e+04	 1235.85
2.10449e+04	 1235.6
2.10571e+04	 1235.35
2.10693e+04	 1235.11
2.10815e+04	 1234.86
2.10937e+04	 1234.62
2.11060e+04	 1234.37
2.11182e+04	 1234.13
2.11304e+04	 1233.89
2.11426e+04	 1233.65
2.11548e+04	 1233.41
2.11670e+04	 1233.17
2.11792e+04	 1232.93
2.11914e+04	 1232.69
2.12036e+04	 1232.45
2.12158e+04	 1232.22
2.12280e+04	 1231.98
2.12402e+04	 1231.75
2.12524e+04	 1231.51
2.12646e+04	 1231.28
2.12769e+04	 1231.05
2.12891e+04	 1230.82
2.13013e+04	 1230.59
2.13135e+04	 1230.36
2.13257e+04	 1230.13
2.13379e+04	 1229.9
2.13501e+04	 1229.67
2.13623e+04	 1229.45
2.13745e+04	 1229.22
2.13867e+04	 1229
2.13989e+04	 1228.77
2.14111e+04	 1228.55
2.14233e+04	 1228.33
2.14355e+04	 1228.11
2.14478e+04	 1227.88
2.14600e+04	 1227.66
2.14722e+04	 1227.45
2.14844e+04	 1227.23
2.14966e+04	 1227.01
2.15088e+04	 1226.79
2.15210e+04	 1226.58
2.15332e+04	 1226.36
2.15454e+04	 1226.15
2.15576e+04	 1225.94
2.15698e+04	 1225.72
2.15820e+04	 1225.51
2.15942e+04	 1225.3
2.16064e+04	 1225.09
2.16187e+04	 1224.88
2.16309e+04	 1224.68
2.16431e+04	 1224.47
2.16553e+04	 1224.26
2.16675e+04	 1224.06
2.16797e+04	 1223.85
2.16919e+04	 1223.65
2.17041e+04	 1223.44
2.17163e+04	 1223.24
2.17285e+04	 1223.04
2.17407e+04	 1222.84
2.17529e+04	 1222.64
2.17651e+04	 1222.44
2.17773e+04	 1222.24
2.17896e+04	 1222.04
2.18018e+04	 1221.85
2.18140e+04	 1221.65
2.18262e+04	 1221.45
2.18384e+04	 1221.26
2.18506e+04	 1221.07
2.18628e+04	 1220.87
2.18750e+04	 1220.68
2.18872e+04	 1220.49
2.18994e+04	 1220.3
2.19116e+04	 1220.11
2.19238e+04	 1219.92
2.19360e+04	 1219.73
2.19482e+04	 1219.54
2.19604e+04	 1219.36
2.19727e+04	 1219.17
2.19849e+04	 1218.99
2.19971e+04	 1218.8
2.20093e+04	 1218.62
2.20215e+04	 1218.44
2.20337e+04	 1218.26
2.20459e+04	 1218.08
2.20581e+04	 1217.89
2.20703e+04	 1217.72
2.20825e+04	 1217.54
2.20947e+04	 1217.36
2.21069e+04	 1217.18
2.21191e+04	 1217.01
2.21313e+04	 1216.83
2.21436e+04	 1216.66
2.21558e+04	 1216.48
2.21680e+04	 1216.31
2.21802e+04	 1216.14
2.21924e+04	 1215.97
2.22046e+04	 1215.79
2.22168e+04	 1215.62
2.22290e+04	 1215.46
2.22412e+04	 1215.29
2.22534e+04	 1215.12
2.22656e+04	 1214.95
2.22778e+04	 1214.79
2.22900e+04	 1214.62
2.23022e+04	 1214.46
2.23145e+04	 1214.29
2.23267e+04	 1214.13
2.23389e+04	 1213.97
2.23511e+04	 1213.81
2.23633e+04	 1213.65
2.23755e+04	 1213.49
2.23877e+04	 1213.33
2.23999e+04	 1213.17
2.24121e+04	 1213.01
2.24243e+04	 1212.86
2.24365e+04	 1212.7
2.24487e+04	 1212.54
2.24609e+04	 1212.39
2.24731e+04	 1212.24
2.24854e+04	 1212.08
2.24976e+04	 1211.93
2.25098e+04	 1211.78
2.25220e+04	 1211.63
2.25342e+04	 1211.48
2.25464e+04	 1211.33
2.25586e+04	 1211.18
2.25708e+04	 1211.04
2.25830e+04	 1210.89
2.25952e+04	 1210.74
2.26074e+04	 1210.6
2.26196e+04	 1210.45
2.26318e+04	 1210.31
2.26440e+04	 1210.17
2.26562e+04	 1210.03
2.26685e+04	 1209.88
2.26807e+04	 1209.74
2.26929e+04	 1209.6
2.27051e+04	 1209.47
2.27173e+04	 1209.33
2.27295e+04	 1209.19
2.27417e+04	 1209.05
2.27539e+04	 1208.92
2.27661e+04	 1208.78
2.27783e+04	 1208.65
2.27905e+04	 1208.51
2.28027e+04	 1208.38
2.28149e+04	 1208.25
2.28271e+04	 1208.12
2.28394e+04	 1207.99
2.28516e+04	 1207.86
2.28638e+04	 1207.73
2.28760e+04	 1207.6
2.28882e+04	 1207.47
2.29004e+04	 1207.35
2.29126e+04	 1207.22
2.29248e+04	 1207.09
2.29370e+04	 1206.97
2.29492e+04	 1206.85
2.29614e+04	 1206.72
2.29736e+04	 1206.6
2.29858e+04	 1206.48
2.29980e+04	 1206.36
2.30103e+04	 1206.24
2.30225e+04	 1206.12
2.30347e+04	 1206
2.30469e+04	 1205.88
2.30591e+04	 1205.77
2.30713e+04	 1205.65
2.30835e+04	 1205.53
2.30957e+04	 1205.42
2.31079e+04	 1205.31
2.31201e+04	 1205.19
2.31323e+04	 1205.08
2.31445e+04	 1204.97
2.31567e+04	 1204.86
2.31689e+04	 1204.75
2.31812e+04	 1204.64
2.31934e+04	 1204.53
2.32056e+04	 1204.42
2.32178e+04	 1204.31
2.32300e+04	 1204.21
2.32422e+04	 1204.1
2.32544e+04	 1204
2.32666e+04	 1203.89
2.32788e+04	 1203.79
2.32910e+04	 1203.69
2.33032e+04	 1203.58
2.33154e+04	 1203.48
2.33276e+04	 1203.38
2.33398e+04	 1203.28
2.33521e+04	 1203.18
2.33643e+04	 1203.09
2.33765e+04	 1202.99
2.33887e+04	 1202.89
2.34009e+04	 1202.8
2.34131e+04	 1202.7
2.34253e+04	 1202.61
2.34375e+04	 1202.51
2.34497e+04	 1202.42
2.34619e+04	 1202.33
2.34741e+04	 1202.23
2.34863e+04	 1202.14
2.34985e+04	 1202.05
2.35107e+04	 1201.96
2.35229e+04	 1201.88
2.35352e+04	 1201.79
2.35474e+04	 1201.7
2.35596e+04	 1201.61
2.35718e+04	 1201.53
2.35840e+04	 1201.44
2.35962e+04	 1201.36
2.36084e+04	 1201.28
2.36206e+04	 1201.19
2.36328e+04	 1201.11
2.36450e+04	 1201.03
2.36572e+04	 1200.95
2.36694e+04	 1200.87
2.36816e+04	 1200.79
2.36938e+04	 1200.71
2.37061e+04	 1200.64
2.37183e+04	 1200.56
2.37305e+04	 1200.48
2.37427e+04	 1200.41
2.37549e+04	 1200.33
2.37671e+04	 1200.26
2.37793e+04	 1200.19
2.37915e+04	 1200.11
2.38037e+04	 1200.04
2.38159e+04	 1199.97
2.38281e+04	 1199.9
2.38403e+04	 1199.83
2.38525e+04	 1199.76
2.38647e+04	 1199.69
2.38770e+04	 1199.63
2.38892e+04	 1199.56
2.39014e+04	 1199.49
2.39136e+04	 1199.43
2.39258e+04	 1199.37
2.39380e+04	 1199.3
2.39502e+04	 1199.24
2.39624e+04	 1199.18
2.39746e+04	 1199.12
2.39868e+04	 1199.05
2.39990e+04	 1198.99
2.40112e+04	 1198.94
2.40234e+04	 1198.88
2.40356e+04	 1198.82
2.40479e+04	 1198.76
2.40601e+04	 1198.71
2.40723e+04	 1198.65
2.40845e+04	 1198.6
2.40967e+04	 1198.54
2.41089e+04	 1198.49
2.41211e+04	 1198.44
2.41333e+04	 1198.38
2.41455e+04	 1198.33
2.41577e+04	 1198.28
2.41699e+04	 1198.23
2.41821e+04	 1198.18
2.41943e+04	 1198.14
2.42065e+04	 1198.09
2.42187e+04	 1198.04
2.42310e+04	 1198
2.42432e+04	 1197.95
2.42554e+04	 1197.91
2.42676e+04	 1197.86
2.42798e+04	 1197.82
2.42920e+04	 1197.78
2.43042e+04	 1197.73
2.43164e+04	 1197.69
2.43286e+04	 1197.65
2.43408e+04	 1197.61
2.43530e+04	 1197.57
2.43652e+04	 1197.54
2.43774e+04	 1197.5
2.43896e+04	 1197.46
2.44019e+04	 1197.43
2.44141e+04	 1197.39
2.44263e+04	 1197.36
2.44385e+04	 1197.32
2.44507e+04	 1197.29
2.44629e+04	 1197.26
2.44751e+04	 1197.23
2.44873e+04	 1197.2
2.44995e+04	 1197.17
2.45117e+04	 1197.14
2.45239e+04	 1197.11
2.45361e+04	 1197.08
2.45483e+04	 1197.05
2.45605e+04	 1197.03
2.45728e+04	 1197
2.45850e+04	 1196.98
2.45972e+04	 1196.95
2.46094e+04	 1196.93
2.46216e+04	 1196.91
2.46338e+04	 1196.88
2.46460e+04	 1196.86
2.46582e+04	 1196.84
2.46704e+04	 1196.82
2.46826e+04	 1196.8
2.46948e+04	 1196.78
2.47070e+04	 1196.77
2.47192e+04	 1196.75
2.47314e+04	 1196.73
2.47437e+04	 1196.72
2.47559e+04	 1196.7
2.47681e+04	 1196.69
2.47803e+04	 1196.67
2.47925e+04	 1196.66
2.48047e+04	 1196.65
2.48169e+04	 1196.64
2.48291e+04	 1196.63
2.48413e+04	 1196.62
2.48535e+04	 1196.61
2.48657e+04	 1196.6
2.48779e+04	 1196.59
2.48901e+04	 1196.59
2.49023e+04	 1196.58
2.49146e+04	 1196.58
2.49268e+04	 1196.57
2.49390e+04	 1196.57
2.49512e+04	 1196.56
2.49634e+04	 1196.56
2.49756e+04	 1196.56
2.49878e+04	 1196.56
2.50000e+04	 1196.56
2.50122e+04	 1196.56
2.50244e+04	 1196.56
2.50366e+04	 1196.56
2.50488e+04	 1196.56
2.50610e+04	 1196.57
2.50732e+04	 1196.57
2.50854e+04	 1196.58
2.50977e+04	 1196.58
2.51099e+04	 1196.59
2.51221e+04	 1196.59
2.51343e+04	 1196.6
2.51465e+04	 1196.61
2.51587e+04	 1196.62
2.51709e+04	 1196.63
2.51831e+04	 1196.64
2.51953e+04	 1196.65
2.52075e+04	 1196.66
2.52197e+04	 1196.67
2.52319e+04	 1196.69
2.52441e+04	 1196.7
2.52563e+04	 1196.72
2.52686e+04	 1196.73
2.52808e+04	 1196.75
2.52930e+04	 1196.77
2.53052e+04	 1196.78
2.53174e+04	 1196.8
2.53296e+04	 1196.82
2.53418e+04	 1196.84
2.53540e+04	 1196.86
2.53662e+04	 1196.88
2.53784e+04	 1196.91
2.53906e+04	 1196.93
2.54028e+04	 1196.95
2.54150e+04	 1196.98
2.54272e+04	 1197
2.54395e+04	 1197.03
2.54517e+04	 1197.05
2.54639e+04	 1197.08
2.54761e+04	 1197.11
2.54883e+04	 1197.14
2.55005e+04	 1197.17
2.55127e+04	 1197.2
2.55249e+04	 1197.23
2.55371e+04	 1197.26
2.55493e+04	 1197.29
2.55615e+04	 1197.32
2.55737e+04	 1197.36
2.55859e+04	 1197.39
2.55981e+04	 1197.43
2.56104e+04	 1197.46
2.56226e+04	 1197.5
2.56348e+04	 1197.54
2.56470e+04	 1197.57
2.56592e+04	 1197.61
2.56714e+04	 1197.65
2.56836e+04	 1197.69
2.56958e+04	 1197.73
2.57080e+04	 1197.78
2.57202e+04	 1197.82
2.57324e+04	 1197.86
2.57446e+04	 1197.91
2.57568e+04	 1197.95
2.57690e+04	 1198
2.57812e+04	 1198.04
2.57935e+04	 1198.09
2.58057e+04	 1198.14
2.58179e+04	 1198.18
2.58301e+04	 1198.23
2.58423e+04	 1198.28
2.58545e+04	 1198.33
2.58667e+04	 1198.38
2.58789e+04	 1198.44
2.58911e+04	 1198.49
2.59033e+04	 1198.54
2.59155e+04	 1198.6
2.59277e+04	 1198.65
2.59399e+04	 1198.71
2.59521e+04	 1198.76
2.59644e+04	 1198.82
2.59766e+04	 1198.88
2.59888e+04	 1198.94
2.60010e+04	 1198.99
2.60132e+04	 1199.05
2.60254e+04	 1199.12
2.60376e+04	 1199.18
2.60498e+04	 1199.24
2.60620e+04	 1199.3
2.60742e+04	 1199.37
2.60864e+04	 1199.43
2.60986e+04	 1199.49
2.61108e+04	 1199.56
2.61230e+04	 1199.63
2.61353e+04	 1199.69
2.61475e+04	 1199.76
2.61597e+04	 1199.83
2.61719e+04	 1199.9
2.61841e+04	 1199.97
2.61963e+04	 1200.04
2.62085e+04	 1200.11
2.62207e+04	 1200.19
2.62329e+04	 1200.26
2.62451e+04	 1200.33
2.62573e+04	 1200.41
2.62695e+04	 1200.48
2.62817e+04	 1200.56
2.62939e+04	 1200.64
2.63062e+04	 1200.71
2.63184e+04	 1200.79
2.63306e+04	 1200.87
2.63428e+04	 1200.95
2.63550e+04	 1201.03
2.63672e+04	 1201.11
2.63794e+04	 1201.19
2.63916e+04	 1201.28
2.64038e+04	 1201.36
2.64160e+04	 1201.44
2.64282e+04	 1201.53
2.64404e+04	 1201.61
2.64526e+04	 1201.7
2.64648e+04	 1201.79
2.64771e+04	 1201.88
2.64893e+04	 1201.96
2.65015e+04	 1202.05
2.65137e+04	 1202.14
2.65259e+04	 1202.23
2.65381e+04	 1202.33
2.65503e+04	 1202.42
2.65625e+04	 1202.51
2.65747e+04	 1202.61
2.65869e+04	 1202.7
2.65991e+04	 1202.8
2.66113e+04	 1202.89
2.66235e+04	 1202.99
2.66357e+04	 1203.09
2.66479e+04	 1203.18
2.66602e+04	 1203.28
2.66724e+04	 1203.38
2.66846e+04	 1203.48
2.66968e+04	 1203.58
2.67090e+04	 1203.69
2.67212e+04	 1203.79
2.67334e+04	 1203.89
2.67456e+04	 1204
2.67578e+04	 1204.1
2.67700e+04	 1204.21
2.67822e+04	 1204.31
2.67944e+04	 1204.42
2.68066e+04	 1204.53
2.68188e+04	 1204.64
2.68311e+04	 1204.75
2.68433e+04	 1204.86
2.68555e+04	 1204.97
2.68677e+04	 1205.08
2.68799e+04	 1205.19
2.68921e+04	 1205.31
2.69043e+04	 1205.42
2.69165e+04	 1205.53
2.69287e+04	 1205.65
2.69409e+04	 1205.77
2.69531e+04	 1205.88
2.69653e+04	 1206
2.69775e+04	 1206.12
2.69897e+04	 1206.24
2.70020e+04	 1206.36
2.70142e+04	 1206.48
2.70264e+04	 1206.6
2.70386e+04	 1206.72
2.70508e+04	 1206.85
2.70630e+04	 1206.97
2.70752e+04	 1207.09
2.70874e+04	 1207.22
2.70996e+04	 1207.35
2.71118e+04	 1207.47
2.71240e+04	 1207.6
2.71362e+04	 1207.73
2.71484e+04	 1207.86
2.71606e+04	 1207.99
2.71729e+04	 1208.12
2.71851e+04	 1208.25
2.71973e+04	 1208.38
2.72095e+04	 1208.51
2.72217e+04	 1208.65
2.72339e+04	 1208.78
2.72461e+04	 1208.92
2.72583e+04	 1209.05
2.72705e+04	 1209.19
2.72827e+04	 1209.33
2.72949e+04	 1209.47
2.73071e+04	 1209.6
2.73193e+04	 1209.74
2.73315e+04	 1209.88
2.73437e+04	 1210.03
2.73560e+04	 1210.17
2.73682e+04	 1210.31
2.73804e+04	 1210.45
2.73926e+04	 1210.6
2.74048e+04	 1210.74
2.74170e+04	 1210.89
2.74292e+04	 1211.04
2.74414e+04	 1211.18
2.74536e+04	 1211.33
2.74658e+04	 1211.48
2.74780e+04	 1211.63
2.74902e+04	 1211.78
2.75024e+04	 1211.93
2.75146e+04	 1212.08
2.75269e+04	 1212.24
2.75391e+04	 1212.39
2.75513e+04	 1212.54
2.75635e+04	 1212.7
2.75757e+04	 1212.86
2.75879e+04	 1213.01
2.76001e+04	 1213.17
2.76123e+04	 1213.33
2.76245e+04	 1213.49
2.76367e+04	 1213.65
2.76489e+04	 1213.81
2.76611e+04	 1213.97
2.76733e+04	 1214.13
2.76855e+04	 1214.29
2.76978e+04	 1214.46
2.77100e+04	 1214.62
2.77222e+04	 1214.79
2.77344e+04	 1214.95
2.77466e+04	 1215.12
2.77588e+04	 1215.29
2.77710e+04	 1215.46
2.77832e+04	 1215.62
2.77954e+04	 1215.79
2.78076e+04	 1215.97
2.78198e+04	 1216.14
2.78320e+04	 1216.31
2.78442e+04	 1216.48
2.78564e+04	 1216.66
2.78687e+04	 1216.83
2.78809e+04	 1217.01
2.78931e+04	 1217.18
2.79053e+04	 1217.36
2.79175e+04	 1217.54
2.79297e+04	 1217.72
2.79419e+04	 1217.89
2.79541e+04	 1218.08
2.79663e+04	 1218.26
2.79785e+04	 1218.44
2.79907e+04	 1218.62
2.80029e+04	 1218.8
2.80151e+04	 1218.99
2.80273e+04	 1219.17
2.80396e+04	 1219.36
2.80518e+04	 1219.54
2.80640e+04	 1219.73
2.80762e+04	 1219.92
2.80884e+04	 1220.11
2.81006e+04	 1220.3
2.81128e+04	 1220.49
2.81250e+04	 1220.68
2.81372e+04	 1220.87
2.81494e+04	 1221.07
2.81616e+04	 1221.26
2.81738e+04	 1221.45
2.81860e+04	 1221.65
2.81982e+04	 1221.85
2.82104e+04	 1222.04
2.82227e+04	 1222.24
2.82349e+04	 1222.44
2.82471e+04	 1222.64
2.82593e+04	 1222.84
2.82715e+04	 1223.04
2.82837e+04	 1223.24
2.82959e+04	 1223.44
2.83081e+04	 1223.65
2.83203e+04	 1223.85
2.83325e+04	 1224.06
2.83447e+04	 1224.26
2.83569e+04	 1224.47
2.83691e+04	 1224.68
2.83813e+04	 1224.88
2.83936e+04	 1225.09
2.84058e+04	 1225.3
2.84180e+04	 1225.51
2.84302e+04	 1225.72
2.84424e+04	 1225.94
2.84546e+04	 1226.15
2.84668e+04	 1226.36
2.84790e+04	 1226.58
2.84912e+04	 1226.79
2.85034e+04	 1227.01
2.85156e+04	 1227.23
2.85278e+04	 1227.45
2.85400e+04	 1227.66
2.85522e+04	 1227.88
2.85645e+04	 1228.11
2.85767e+04	 1228.33
2.85889e+04	 1228.55
2.86011e+04	 1228.77
2.86133e+04	 1229
2.86255e+04	 1229.22
2.86377e+04	 1229.45
2.86499e+04	 1229.67
2.86621e+04	 1229.9
2.86743e+04	 1230.13
2.86865e+04	 1230.36
2.86987e+04	 1230.59
2.87109e+04	 1230.82
2.87231e+04	 1231.05
2.87354e+04	 1231.28
2.87476e+04	 1231.51
2.87598e+04	 1231.75
2.87720e+04	 1231.98
2.87842e+04	 1232.22
2.87964e+04	 1232.45
2.88086e+04	 1232.69
2.88208e+04	 1232.93
2.88330e+04	 1233.17
2.88452e+04	 1233.41
2.88574e+04	 1233.65
2.88696e+04	 1233.89
2.88818e+04	 1234.13
2.88940e+04	 1234.37
2.89062e+04	 1234.62
2.89185e+04	 1234.86
2.89307e+04	 1235.11
2.89429e+04	 1235.35
2.89551e+04	 1235.6
2.89673e+04	 1235.85
2.89795e+04	 1236.1
2.89917e+04	 1236.35
2.90039e+04	 1236.6
2.90161e+04	 1236.85
2.90283e+04	 1237.1
2.90405e+04	 1237.36
2.90527e+04	 1237.61
2.90649e+04	 1237.86
2.90771e+04	 1238.12
2.90894e+04	 1238.38
2.91016e+04	 1238.63
2.91138e+04	 1238.89
2.91260e+04	 1239.15
2.91382e+04	 1239.41
2.91504e+04	 1239.67
2.91626e+04	 1239.93
2.91748e+04	 1240.2
2.91870e+04	 1240.46
2.91992e+04	 1240.73
2.92114e+04	 1240.99
2.92236e+04	 1241.26
2.92358e+04	 1241.52
2.92480e+04	 1241.79
2.92603e+04	 1242.06
2.92725e+04	 1242.33
2.92847e+04	 1242.6
2.92969e+04	 1242.87
2.93091e+04	 1243.14
2.93213e+04	 1243.42
2.93335e+04	 1243.69
2.93457e+04	 1243.97
2.93579e+04	 1244.24
2.93701e+04	 1244.52
2.93823e+04	 1244.8
2.93945e+04	 1245.07
2.94067e+04	 1245.35
2.94189e+04	 1245.63
2.94312e+04	 1245.92
2.94434e+04	 1246.2
2.94556e+04	 1246.48
2.94678e+04	 1246.76
2.94800e+04	 1247.05
2.94922e+04	 1247.33
2.95044e+04	 1247.62
2.95166e+04	 1247.91
2.95288e+04	 1248.2
2.95410e+04	 1248.48
2.95532e+04	 1248.77
2.95654e+04	 1249.07
2.95776e+04	 1249.36
2.95898e+04	 1249.65
2.96021e+04	 1249.94
2.96143e+04	 1250.24
2.96265e+04	 1250.53
2.96387e+04	 1250.83
2.96509e+04	 1251.13
2.96631e+04	 1251.42
2.96753e+04	 1251.72
2.96875e+04	 1252.02
2.96997e+04	 1252.32
2.97119e+04	 1252.63
2.97241e+04	 1252.93
2.97363e+04	 1253.23
2.97485e+04	 1253.54
2.97607e+04	 1253.84
2.97729e+04	 1254.15
2.97852e+04	 1254.45
2.97974e+04	 1254.76
2.98096e+04	 1255.07
2.98218e+04	 1255.38
2.98340e+04	 1255.69
2.98462e+04	 1256
2.98584e+04	 1256.32
2.98706e+04	 1256.63
2.98828e+04	 1256.94
2.98950e+04	 1257.26
2.99072e+04	 1257.58
2.99194e+04	 1257.89
2.99316e+04	 1258.21
2.99438e+04	 1258.53
2.99561e+04	 1258.85
2.99683e+04	 1259.17
2.99805e+04	 1259.49
2.99927e+04	 1259.81
3.00049e+04	 1260.14
3.00171e+04	 1260.46
3.00293e+04	 1260.79
3.00415e+04	 1261.12
3.00537e+04	 1261.44
3.00659e+04	 1261.77
3.00781e+04	 1262.1
3.00903e+04	 1262.43
3.01025e+04	 1262.76
3.01147e+04	 1263.09
3.01270e+04	 1263.43
3.01392e+04	 1263.76
3.01514e+04	 1264.1
3.01636e+04	 1264.43
3.01758e+04	 1264.77
3.01880e+04	 1265.11
3.02002e+04	 1265.45
3.02124e+04	 1265.79
3.02246e+04	 1266.13
3.02368e+04	 1266.47
3.02490e+04	 1266.81
3.02612e+04	 1267.15
3.02734e+04	 1267.5
3.02856e+04	 1267.84
3.02979e+04	 1268.19
3.03101e+04	 1268.54
3.03223e+04	 1268.89
3.03345e+04	 1269.24
3.03467e+04	 1269.59
3.03589e+04	 1269.94
3.03711e+04	 1270.29
3.03833e+04	 1270.64
3.03955e+04	 1271
3.04077e+04	 1271.35
3.04199e+04	 1271.71
3.04321e+04	 1272.06
3.04443e+04	 1272.42
3.04565e+04	 1272.78
3.04687e+04	 1273.14
3.04810e+04	 1273.5
3.04932e+04	 1273.86
3.05054e+04	 1274.23
3.05176e+04	 1274.59
